Time (s)	RV (P0)	RV (P1)	RV (P2)	RV (P3)	RV (P4)	RV (P5)	RV (P6)	density (kg/m^3)	PstatRef (Pa)	PtotRef (Pa)
										
										
										
0.01	11.5763	12.4544	12.6688	16.1379	14.1367	14.3342	15.2263	1.1896	0	0
0.02	11.5518	12.5763	12.4213	15.7444	13.5078	13.8385	14.5059	1.1896	0	0
0.03	12.5272	12.8977	13.0387	15.8445	13.3591	13.4430	13.9554	1.1896	0	0
0.04	10.4982	12.2351	10.9710	14.0782	11.8371	12.7230	13.0946	1.1896	0	0
0.05	10.7200	12.3638	11.4490	15.0578	12.9236	13.8310	14.4744	1.1896	0	0
0.06	10.6136	12.2339	12.0820	15.6995	13.9633	14.1745	15.2938	1.1896	0	0
0.07	10.5368	11.8793	12.1448	14.8532	13.4513	12.4691	13.7918	1.1896	0	0
0.08	13.5206	13.3647	14.4005	17.5492	15.1079	14.8974	15.5844	1.1896	0	0
0.09	11.5440	13.3751	12.0031	14.6532	12.6168	12.5133	13.2110	1.1896	0	0
0.10	11.5371	12.3635	12.5899	15.2733	13.4728	13.1970	14.2216	1.1896	0	0
0.11	10.7599	13.0395	11.4123	14.0312	11.7901	12.0297	12.3397	1.1896	0	0
0.12	11.0118	12.3042	11.5657	14.7178	12.5350	13.0579	13.5914	1.1896	0	0
0.13	11.5082	12.5457	11.2366	15.1579	11.9236	14.0543	13.7158	1.1896	0	0
0.14	11.0247	13.2977	10.8496	14.9843	11.7497	13.9992	13.6932	1.1896	0	0
0.15	10.6597	12.2287	11.1642	14.6868	12.2681	13.4164	13.7954	1.1896	0	0
0.16	11.3339	12.9724	11.2778	15.2537	12.1218	14.2818	14.0547	1.1896	0	0
0.17	10.5297	13.0364	9.7111	13.0708	9.8071	12.0897	11.5087	1.1896	0	0
0.18	8.2651	11.4718	8.8263	9.9342	8.6774	7.5198	8.4000	1.1896	0	0
0.19	8.9977	10.5493	9.6283	10.2223	9.1282	6.7619	7.7417	1.1896	0	0
0.20	10.7844	9.6435	11.8845	13.4161	12.2126	10.4270	11.7111	1.1896	0	0
0.21	10.3500	10.5676	10.8508	13.5102	11.5832	11.8143	12.4216	1.1896	0	0
0.22	10.9130	11.6184	11.5460	14.4411	12.3533	12.2557	12.9445	1.1896	0	0
0.23	9.7350	11.1475	10.9992	14.3137	12.8929	12.5881	13.8910	1.1896	0	0
0.24	9.6243	9.9484	10.8904	11.3426	10.5001	7.6645	9.0953	1.1896	0	0
0.25	11.2002	10.8511	10.2018	13.5466	9.8885	12.1633	11.1568	1.1896	0	0
0.26	10.9318	11.3878	11.6411	15.1400	12.9330	13.9931	14.4297	1.1896	0	0
0.27	11.2447	12.1314	11.4598	15.4008	12.6570	14.1662	14.3645	1.1896	0	0
0.28	11.4617	12.6332	12.2625	14.9340	12.9878	12.6183	13.4557	1.1896	0	0
0.29	10.6382	13.3436	9.0483	14.1954	9.6795	14.1302	13.0388	1.1896	0	0
0.30	10.7606	12.9369	10.7918	14.5254	11.6596	13.4352	13.3791	1.1896	0	0
0.31	9.6760	12.8818	9.8847	14.2010	11.2926	13.6194	13.5441	1.1896	0	0
0.32	7.7252	11.3398	8.5579	10.3901	9.1520	8.2700	9.1837	1.1896	0	0
0.33	12.2266	10.5275	12.6059	12.8327	11.1491	8.2549	9.0600	1.1896	0	0
0.34	8.4182	10.2905	9.5214	12.2905	11.1845	11.1776	12.3051	1.1896	0	0
0.35	10.9292	11.4247	9.6042	15.0876	10.6533	15.1629	14.0560	1.1896	0	0
0.36	10.4308	11.7652	10.4337	14.5440	11.5191	13.5969	13.5585	1.1896	0	0
0.37	9.6886	10.7895	10.0158	10.8412	9.3950	7.6250	7.8510	1.1896	0	0
0.38	10.7122	10.2632	10.6682	13.1996	10.8938	11.8294	11.6678	1.1896	0	0
0.39	10.5145	11.4236	11.5474	14.0160	11.9731	11.4864	12.0954	1.1896	0	0
0.40	9.4696	11.7766	8.9599	12.9063	9.7008	12.5131	11.9583	1.1896	0	0
0.41	10.5892	12.5272	10.5259	14.5925	11.7811	13.7724	13.8494	1.1896	0	0
0.42	10.4080	12.7222	11.1896	14.6721	12.5947	13.0160	13.7143	1.1896	0	0
0.43	11.4283	12.0885	12.0592	13.6324	11.6562	10.7481	10.9912	1.1896	0	0
0.44	10.6063	11.5268	10.5176	12.8040	10.3004	11.0984	10.8573	1.1896	0	0
0.45	10.0924	10.7402	10.7662	12.8060	11.1960	10.7060	11.4015	1.1896	0	0
0.46	11.2857	11.3987	11.7412	14.9259	12.6385	13.0860	13.4911	1.1896	0	0
0.47	10.8001	11.6344	11.6698	14.7560	12.6908	12.9976	13.6792	1.1896	0	0
0.48	11.3704	11.5720	12.5039	15.7776	13.7643	13.6979	14.5905	1.1896	0	0
0.49	10.9323	12.1842	11.7865	14.1511	12.2936	12.0103	12.6499	1.1896	0	0
0.50	11.8762	12.0059	13.1082	15.1860	13.7466	12.0702	13.4898	1.1896	0	0
0.51	10.7050	12.0180	10.0526	13.2162	10.2359	12.1471	11.8246	1.1896	0	0
0.52	11.7521	12.5914	11.7110	15.1472	12.3812	13.6452	13.5346	1.1896	0	0
0.53	10.8405	12.2371	11.0931	14.4431	11.9961	12.9722	13.2185	1.1896	0	0
0.54	10.1556	12.4056	11.3583	14.4059	12.6245	12.6500	13.5151	1.1896	0	0
0.55	10.9373	12.5068	11.7340	15.1345	12.9404	13.4118	14.1593	1.1896	0	0
0.56	11.1976	12.3685	11.9603	15.2280	13.1300	13.3766	14.1329	1.1896	0	0
0.57	9.6271	12.3532	9.9051	12.9568	10.4216	11.8721	11.9304	1.1896	0	0
0.58	9.8353	11.2446	9.5981	11.4844	8.7362	10.0655	9.5420	1.1896	0	0
0.59	12.1206	11.3066	11.2596	14.2829	10.8580	12.6772	11.8360	1.1896	0	0
0.60	10.1710	11.2388	11.0148	13.5133	11.6433	11.3794	12.0427	1.1896	0	0
0.61	12.4400	11.7363	11.9825	15.6855	11.9337	14.4463	13.5743	1.1896	0	0
0.62	10.4824	12.0556	9.8937	12.6436	9.9531	11.2984	11.2152	1.1896	0	0
0.63	9.7270	11.4081	10.1769	13.3619	11.0384	11.9788	12.2578	1.1896	0	0
0.64	12.1996	11.8077	12.9541	15.1371	13.4360	12.2403	13.0880	1.1896	0	0
0.65	11.5094	12.2477	12.6990	14.9250	13.2774	11.9267	13.1308	1.1896	0	0
0.66	11.2172	11.7176	12.3583	13.7990	12.4523	10.6082	11.8074	1.1896	0	0
0.67	11.8647	12.9210	11.8259	15.7441	12.7802	14.6647	14.4741	1.1896	0	0
0.68	10.1479	12.4955	10.4781	13.2791	11.1126	11.3819	11.9627	1.1896	0	0
0.69	12.3299	13.0256	11.3251	15.4982	11.2813	14.3740	13.1302	1.1896	0	0
0.70	11.2343	13.3679	11.4775	15.7647	12.7720	14.7853	14.8325	1.1896	0	0
0.71	13.6194	13.7816	12.5914	15.9835	11.6873	13.9635	13.0266	1.1896	0	0
0.72	11.7425	13.8730	11.9921	15.8050	12.9630	14.4196	14.3624	1.1896	0	0
0.73	11.3026	13.1582	12.0943	15.5293	13.4382	13.8232	14.5433	1.1896	0	0
0.74	10.7786	12.3130	11.7397	14.6778	12.8488	12.6974	13.5974	1.1896	0	0
0.75	10.0675	12.7351	11.4451	14.0854	12.6258	11.9810	13.2118	1.1896	0	0
0.76	12.2052	12.5804	12.2811	15.4787	12.7960	13.5417	13.7660	1.1896	0	0
0.77	10.9474	12.6410	10.6915	14.5742	11.8240	13.7244	13.7730	1.1896	0	0
0.78	10.3660	12.4710	11.4802	14.3657	12.5693	12.3414	13.2638	1.1896	0	0
0.79	11.0650	12.3426	11.5789	15.1522	12.9007	13.6770	14.2624	1.1896	0	0
0.80	10.5938	12.8248	11.1031	14.0658	11.7430	12.5109	12.7576	1.1896	0	0
0.81	11.2300	12.3647	12.2527	15.6275	13.5592	13.8712	14.6846	1.1896	0	0
0.82	11.5552	11.9497	12.6398	16.2221	14.1391	14.4724	15.3597	1.1896	0	0
0.83	12.2428	13.1986	13.1219	15.5763	13.3946	12.5287	13.4213	1.1896	0	0
0.84	11.7397	12.4208	12.3678	15.1557	13.1482	13.1566	13.8004	1.1896	0	0
0.85	11.6668	12.3979	12.0314	14.6288	12.3354	12.4968	12.9154	1.1896	0	0
0.86	10.8485	12.4647	11.2961	14.3171	11.9099	12.6041	12.9098	1.1896	0	0
0.87	10.7956	12.4022	11.7293	14.6174	12.8852	12.8417	13.7331	1.1896	0	0
0.88	11.0351	12.7510	12.5629	15.3290	13.8494	12.9720	14.4288	1.1896	0	0
0.89	11.5643	12.4498	12.8936	15.8135	14.2602	13.2877	14.8361	1.1896	0	0
0.90	12.2410	12.8174	13.1620	16.2361	13.9087	14.1054	14.6754	1.1896	0	0
0.91	13.7818	13.6504	12.8112	15.9945	11.9582	13.5965	12.6849	1.1896	0	0
0.92	11.0158	13.0364	11.2381	13.8411	11.4050	12.0243	11.9643	1.1896	0	0
0.93	11.5779	13.1717	12.1260	15.7651	13.2933	14.3129	14.6532	1.1896	0	0
0.94	10.1183	11.9301	10.4680	13.3336	11.2510	11.7375	12.2611	1.1896	0	0
0.95	10.7226	12.3906	10.5417	13.2296	10.2642	11.8257	11.3653	1.1896	0	0
0.96	10.7662	11.6208	10.8761	13.9553	11.5726	12.6663	12.8544	1.1896	0	0
0.97	11.4908	12.2361	12.0958	15.4024	13.1162	13.5152	14.0086	1.1896	0	0
0.98	11.6254	12.9556	12.6017	15.6837	13.7052	13.5273	14.2937	1.1896	0	0
0.99	12.0439	12.4322	12.4201	15.5830	13.0725	13.7742	14.0012	1.1896	0	0
1.00	11.4517	13.1068	12.3298	15.2369	13.1247	13.1425	13.8119	1.1896	0	0
1.01	10.8266	12.9900	11.0177	13.5761	11.1948	11.7377	11.8923	1.1896	0	0
1.02	11.4706	12.3731	12.2602	15.2957	13.1542	13.3724	13.9455	1.1896	0	0
1.03	10.9555	12.4657	11.8539	14.5548	12.7392	12.5257	13.3162	1.1896	0	0
1.04	10.7167	12.2974	11.8496	15.2186	13.2094	13.5118	14.2060	1.1896	0	0
1.05	10.4568	12.5681	11.3394	14.9541	12.9596	13.7617	14.5286	1.1896	0	0
1.06	12.1231	13.2782	12.1586	16.3303	13.1583	15.1101	14.9967	1.1896	0	0
1.07	11.8148	13.4157	12.5499	16.3012	14.0826	14.6499	15.3639	1.1896	0	0
1.08	12.8933	14.0092	12.2430	15.6459	12.1522	13.8813	13.3275	1.1896	0	0
1.09	12.0090	13.8929	12.4638	16.0825	13.4002	14.1264	14.5309	1.1896	0	0
1.10	11.4680	13.2874	11.9667	15.0311	12.6306	13.3364	13.5433	1.1896	0	0
1.11	10.9648	13.3342	11.5696	14.8764	12.6416	13.2764	13.8954	1.1896	0	0
1.12	10.2944	12.0332	11.5892	14.4498	12.7808	12.4007	13.5467	1.1896	0	0
1.13	11.7564	12.7277	11.5817	15.0863	11.4871	13.5579	12.7746	1.1896	0	0
1.14	11.0284	12.4035	11.7607	15.3378	12.9639	13.9167	14.3528	1.1896	0	0
1.15	11.2317	12.8090	10.4122	13.9334	9.7631	12.7692	11.2080	1.1896	0	0
1.16	11.5192	13.0162	11.2329	14.9185	11.6704	13.5292	13.0928	1.1896	0	0
1.17	11.8189	12.2275	11.7455	14.2905	11.5245	12.2077	11.8800	1.1896	0	0
1.18	12.5715	12.8489	13.1458	15.4871	13.1309	12.5583	13.0526	1.1896	0	0
1.19	8.7416	12.2250	7.9783	10.8761	7.6905	10.0914	9.0081	1.1896	0	0
1.20	9.9027	11.7499	10.2575	13.2131	11.3610	11.8489	12.5099	1.1896	0	0
1.21	11.1879	12.5474	11.1345	14.3422	11.6188	12.7240	12.6840	1.1896	0	0
1.22	12.3516	13.0522	12.9760	16.1059	13.7097	14.0319	14.6193	1.1896	0	0
1.23	11.5726	13.3679	11.8506	15.1434	12.5813	13.3506	13.6415	1.1896	0	0
1.24	11.5168	13.1916	12.2259	15.4044	13.0211	13.3592	13.8259	1.1896	0	0
1.25	11.5116	12.6659	12.3968	15.6633	13.6354	13.7511	14.5210	1.1896	0	0
1.26	11.7074	12.9398	12.5888	15.9600	13.9140	14.0241	14.9057	1.1896	0	0
1.27	11.1797	12.6309	11.4227	14.2898	11.7489	12.3241	12.5288	1.1896	0	0
1.28	11.5457	12.5991	11.1026	14.5509	11.2830	13.3558	12.6941	1.1896	0	0
1.29	12.0913	12.9037	12.5554	16.1466	13.4729	14.5043	14.8096	1.1896	0	0
1.30	10.8439	12.6494	11.3405	14.7049	12.2018	13.3721	13.5333	1.1896	0	0
1.31	10.9522	12.6881	12.2001	15.5848	13.7949	14.0306	14.9781	1.1896	0	0
1.32	11.6225	12.6254	12.2165	16.9313	14.0265	15.7160	16.2723	1.1896	0	0
1.33	12.1130	13.4979	11.2011	14.8541	11.1530	13.4761	12.9065	1.1896	0	0
1.34	11.4405	13.5290	11.7211	15.2861	12.7117	13.9369	14.2896	1.1896	0	0
1.35	12.0843	12.8570	12.6609	14.9738	12.9169	12.3156	13.1264	1.1896	0	0
1.36	11.8155	13.1513	11.8027	15.0760	12.1119	13.4157	13.1341	1.1896	0	0
1.37	11.2061	13.0686	10.6345	14.2856	10.8792	13.0203	12.5893	1.1896	0	0
1.38	10.2185	12.0474	10.4312	14.1439	11.7487	13.4333	13.6672	1.1896	0	0
1.39	9.9807	12.6292	8.7810	12.8969	8.5392	12.0831	10.3439	1.1896	0	0
1.40	11.6525	12.1299	10.8119	14.2954	10.6941	12.8931	12.0275	1.1896	0	0
1.41	11.8957	12.8561	12.1712	14.7541	12.5655	12.4698	13.0452	1.1896	0	0
1.42	11.7134	13.0840	12.5767	15.4662	13.2568	13.1059	13.8175	1.1896	0	0
1.43	10.7508	12.0758	11.7198	14.3442	12.6277	12.4691	13.4117	1.1896	0	0
1.44	12.8018	12.3633	13.8589	15.7866	13.9694	12.3350	13.3767	1.1896	0	0
1.45	12.0774	12.7383	10.3412	14.0334	9.2384	13.1054	11.1262	1.1896	0	0
1.46	10.0236	11.6981	10.0080	13.3640	10.9033	12.8931	12.8188	1.1896	0	0
1.47	11.7866	12.9385	11.6749	15.3974	12.2081	13.7830	13.5722	1.1896	0	0
1.48	11.8592	12.9888	11.7694	15.7267	12.6724	14.5021	14.3120	1.1896	0	0
1.49	10.0410	12.4246	10.3714	13.5726	10.9580	12.2335	12.2419	1.1896	0	0
1.50	9.7829	12.0487	10.2220	13.3694	11.0070	11.9814	12.2207	1.1896	0	0
1.51	10.4366	12.3268	11.6416	15.4982	13.7339	14.3068	15.4292	1.1896	0	0
1.52	14.0166	13.1780	14.2649	17.3785	14.3918	15.0157	15.0530	1.1896	0	0
1.53	11.9916	13.3498	12.3905	15.0456	12.7148	12.8620	13.3051	1.1896	0	0
1.54	11.6485	13.1458	12.1888	14.9691	12.7800	13.0232	13.5345	1.1896	0	0
1.55	10.5017	12.5198	11.4127	14.1865	12.2842	12.4686	13.2155	1.1896	0	0
1.56	11.0069	13.0393	11.5292	15.7327	13.0295	14.8436	15.1063	1.1896	0	0
1.57	11.6104	13.4114	11.3902	15.4563	12.1868	14.3448	14.0042	1.1896	0	0
1.58	11.0490	12.3301	11.4819	15.2282	12.6045	13.9761	14.1183	1.1896	0	0
1.59	10.1744	12.6833	10.5241	14.2927	11.7433	13.1650	13.4846	1.1896	0	0
1.60	10.5373	12.2345	12.1045	15.0488	13.4713	13.1634	14.4256	1.1896	0	0
1.61	11.8912	11.2928	13.2254	14.9031	13.6743	11.6841	13.1410	1.1896	0	0
1.62	11.7152	11.9820	12.9569	15.4814	13.7494	12.6446	13.8182	1.1896	0	0
1.63	12.0676	12.1380	13.4059	16.9009	14.9281	14.6939	15.7866	1.1896	0	0
1.64	12.3046	12.8311	12.8141	15.5213	13.0882	13.0122	13.4731	1.1896	0	0
1.65	9.6817	11.9192	9.8918	11.7359	9.7898	9.7841	10.0337	1.1896	0	0
1.66	10.0260	10.9226	10.4724	12.3264	10.4027	9.9922	10.1864	1.1896	0	0
1.67	10.0961	11.0241	10.1393	12.6103	10.3079	11.2626	11.2325	1.1896	0	0
1.68	11.6004	11.6080	10.9938	14.4840	11.1568	13.1220	12.5964	1.1896	0	0
1.69	11.1821	12.1858	11.6157	14.9836	12.6750	13.5012	13.9672	1.1896	0	0
1.70	11.2146	12.5540	11.7376	15.4551	12.9572	13.9851	14.2881	1.1896	0	0
1.71	11.7439	12.6422	11.3584	14.0023	11.0559	11.8785	11.6483	1.1896	0	0
1.72	11.1773	12.9619	12.1193	15.0004	13.0041	13.1377	13.8050	1.1896	0	0
1.73	12.6240	12.9424	14.1028	16.2014	14.6678	12.5144	14.0844	1.1896	0	0
1.74	11.3589	12.6830	12.5614	14.8167	13.1460	12.6229	13.6070	1.1896	0	0
1.75	11.3434	12.2741	12.1825	15.1342	12.9952	13.1841	13.8287	1.1896	0	0
1.76	10.1271	12.1154	11.2664	14.3916	12.7055	12.7632	13.7618	1.1896	0	0
1.77	12.0641	12.9222	11.8917	15.6101	12.4247	13.9924	13.7298	1.1896	0	0
1.78	11.4513	12.2972	12.1610	15.6403	13.6398	14.1370	14.9557	1.1896	0	0
1.79	11.1310	12.5984	11.0894	14.8921	11.8237	13.7419	13.5111	1.1896	0	0
1.80	12.7844	13.3001	13.4233	16.9578	14.4569	14.8644	15.3639	1.1896	0	0
1.81	11.9689	13.1381	12.3393	15.8633	13.2827	13.8142	14.4592	1.1896	0	0
1.82	11.2890	12.9879	11.7788	15.0264	12.7042	13.2861	13.7846	1.1896	0	0
1.83	11.6459	12.7064	12.5238	16.0419	13.7944	14.2203	14.9030	1.1896	0	0
1.84	12.1644	12.9989	13.1979	16.0763	13.9962	13.6254	14.3708	1.1896	0	0
1.85	10.6208	13.3294	11.7687	14.9248	13.1569	13.0240	14.1827	1.1896	0	0
1.86	12.1856	12.4792	13.5819	15.7448	14.0158	12.4000	13.5735	1.1896	0	0
1.87	10.0295	12.5828	9.0323	12.6521	9.3401	12.0513	11.2320	1.1896	0	0
1.88	9.9026	11.9799	10.4148	13.9592	11.9003	12.7833	13.3775	1.1896	0	0
1.89	11.4558	11.4746	12.5224	14.9922	13.4616	12.7740	13.8864	1.1896	0	0
1.90	9.4219	11.6741	10.9113	13.5278	12.4950	11.2551	13.1737	1.1896	0	0
1.91	11.3873	11.8003	12.1304	14.6936	12.8458	12.4717	13.4258	1.1896	0	0
1.92	11.8883	11.9650	11.9688	13.9205	11.6566	11.5761	11.6818	1.1896	0	0
1.93	10.4717	12.1390	10.4117	13.1626	10.6749	11.6647	11.6162	1.1896	0	0
1.94	10.8667	11.8361	11.4787	14.8346	12.6095	13.2721	13.7702	1.1896	0	0
1.95	10.8322	12.3847	12.3661	15.3481	13.7522	13.1930	14.5205	1.1896	0	0
1.96	11.1213	11.7868	12.1325	15.4331	13.3820	14.2456	14.6882	1.1896	0	0
1.97	11.4963	12.4006	12.1598	15.7569	13.2958	14.2969	14.6805	1.1896	0	0
1.98	12.3215	13.2650	12.2963	15.7206	12.6527	13.9575	13.7855	1.1896	0	0
1.99	11.8289	12.9806	11.7982	15.1472	12.0754	13.7341	13.1626	1.1896	0	0
2.00	11.7052	13.4047	12.0679	14.7584	12.4734	12.6500	13.0933	1.1896	0	0
2.01	12.3198	12.7943	12.7499	15.6115	13.3504	13.4622	13.9311	1.1896	0	0
2.02	11.8921	12.5674	12.5982	15.0996	12.9654	12.6230	13.2422	1.1896	0	0
2.03	10.7994	12.8933	11.8486	14.3608	12.6039	12.0592	12.9774	1.1896	0	0
2.04	10.5694	11.9491	11.4580	14.7165	12.8541	13.0731	13.9268	1.1896	0	0
2.05	8.5708	11.4938	8.7392	11.5840	9.3833	10.7776	10.8043	1.1896	0	0
2.06	9.4514	11.3587	9.2172	12.6935	9.3002	12.0745	11.0664	1.1896	0	0
2.07	10.7495	11.0070	10.9004	14.0030	11.8376	12.9325	13.1934	1.1896	0	0
2.08	11.5540	12.0287	11.5960	15.1964	11.9865	13.9958	13.5774	1.1896	0	0
2.09	10.9808	12.2698	10.9480	14.2414	11.4608	12.8713	12.7167	1.1896	0	0
2.10	12.7765	12.5463	12.7593	15.6244	12.8980	13.2899	13.0989	1.1896	0	0
2.11	11.6833	12.4282	12.6385	14.3422	12.8090	11.2447	12.6372	1.1896	0	0
2.12	11.0798	12.2751	12.2312	14.8510	13.1724	12.7288	13.7240	1.1896	0	0
2.13	11.4567	12.7607	12.4558	15.5535	13.4837	13.4506	14.3660	1.1896	0	0
2.14	11.4364	11.9931	10.7856	13.1148	10.2130	11.2168	10.9080	1.1896	0	0
2.15	11.0876	11.8667	11.4864	14.8946	12.4434	13.6707	13.9280	1.1896	0	0
2.16	12.3313	12.5674	13.1581	16.9483	14.7642	15.2301	16.0184	1.1896	0	0
2.17	11.7633	12.0636	13.4047	15.7373	14.3503	12.9032	14.4475	1.1896	0	0
2.18	12.1373	12.4578	12.3356	14.8183	12.3257	12.2716	12.2909	1.1896	0	0
2.19	10.9474	11.7827	11.2425	14.7413	12.1676	13.4766	13.6864	1.1896	0	0
2.20	11.1590	12.5433	11.9738	15.0532	13.0720	13.2790	14.0638	1.1896	0	0
2.21	11.6766	12.8106	12.8488	15.3975	13.5876	12.8386	13.9356	1.1896	0	0
2.22	12.3039	12.4647	13.0271	15.8173	13.7402	13.5159	14.4525	1.1896	0	0
2.23	10.8947	13.4861	10.8702	13.6596	11.3949	11.9697	12.3380	1.1896	0	0
2.24	9.1059	11.5198	8.6447	10.5161	8.0702	8.8830	8.4751	1.1896	0	0
2.25	9.8595	10.6946	9.5475	10.9164	8.5364	9.0013	8.3843	1.1896	0	0
2.26	10.4537	10.8008	9.8242	14.0187	10.2432	13.4785	12.3721	1.1896	0	0
2.27	11.3930	11.6404	11.6520	14.6914	12.2990	13.1246	13.5253	1.1896	0	0
2.28	11.5999	12.2325	12.2753	15.0474	12.9846	13.1860	13.8190	1.1896	0	0
2.29	10.8839	12.3008	10.4059	13.9355	10.7681	12.7592	12.3365	1.1896	0	0
2.30	11.6334	12.1498	12.1765	15.4906	13.2752	14.1174	14.6268	1.1896	0	0
2.31	10.7938	11.9010	11.6073	14.3308	12.4990	12.3863	13.2559	1.1896	0	0
2.32	11.8916	12.0948	12.6160	14.9603	12.8391	12.4164	12.9602	1.1896	0	0
2.33	11.6533	12.0749	12.4568	15.1509	13.1918	13.3796	13.9218	1.1896	0	0
2.34	10.5447	11.5200	11.1176	13.2564	11.3224	11.0752	11.7294	1.1896	0	0
2.35	10.3478	11.9909	11.2763	13.6453	12.0456	11.5856	12.4761	1.1896	0	0
2.36	11.7766	12.4547	12.8316	15.9059	13.7647	13.8540	14.6645	1.1896	0	0
2.37	9.5180	12.1926	8.7656	12.2645	9.0737	10.8549	10.2954	1.1896	0	0
2.38	10.4186	12.0592	11.1714	13.7363	12.1130	11.9127	12.8486	1.1896	0	0
2.39	10.3686	11.8361	11.7579	14.7042	13.2241	12.7528	14.0327	1.1896	0	0
2.40	12.2488	12.3681	12.7950	15.5678	13.2579	13.3511	14.0059	1.1896	0	0
2.41	11.3927	13.1191	11.2049	15.4626	12.1080	14.6733	14.3223	1.1896	0	0
2.42	11.2734	12.6309	10.8326	14.8167	11.3855	13.9633	13.0634	1.1896	0	0
2.43	10.6744	12.6727	11.2374	14.5827	12.1668	13.3181	13.5887	1.1896	0	0
2.44	11.2451	12.6736	10.7839	13.6954	10.6852	12.1644	11.8151	1.1896	0	0
2.45	12.4832	12.6383	12.2276	15.5369	12.4340	13.8784	13.6087	1.1896	0	0
2.46	11.5190	12.8494	11.9842	15.1154	12.8330	13.4359	13.7966	1.1896	0	0
2.47	10.6950	12.1143	10.8082	13.7246	11.4132	12.5664	12.8366	1.1896	0	0
2.48	10.3574	12.3710	10.8565	13.8428	11.7363	12.3802	12.8960	1.1896	0	0
2.49	8.5962	11.6585	8.8751	11.8556	9.4557	10.8847	10.9204	1.1896	0	0
2.50	9.2550	10.6053	9.7410	11.4524	9.9773	9.7707	10.2955	1.1896	0	0
2.51	10.9106	11.3056	11.7263	15.0817	12.8946	13.7881	14.2797	1.1896	0	0
2.52	12.2406	12.1140	12.7511	15.4814	12.9643	12.6446	12.9658	1.1896	0	0
2.53	11.8645	11.8936	13.3125	16.4342	14.4720	14.2797	15.1453	1.1896	0	0
2.54	11.6488	12.8261	11.7856	13.7701	11.4901	11.6324	11.9643	1.1896	0	0
2.55	11.6192	12.5751	12.3174	15.6273	13.4647	13.9246	14.6197	1.1896	0	0
2.56	12.3423	13.3489	13.1130	16.1914	13.7043	13.7012	14.2236	1.1896	0	0
2.57	11.8688	13.3700	11.7866	15.3874	12.5456	14.0953	14.1821	1.1896	0	0
2.58	11.1673	13.0924	11.1190	14.8991	11.9058	13.8270	13.6426	1.1896	0	0
2.59	11.1848	12.8929	11.2240	14.4885	11.7512	13.2671	13.1417	1.1896	0	0
2.60	11.1124	12.0090	11.9031	14.6791	12.6221	12.5162	13.1620	1.1896	0	0
2.61	11.2122	13.5878	9.6520	14.0467	9.5460	13.3759	11.8354	1.1896	0	0
2.62	11.4150	12.4852	12.0230	15.0551	12.8863	13.3898	13.8496	1.1896	0	0
2.63	11.1177	11.8431	12.1236	14.6852	12.9378	12.6857	13.5346	1.1896	0	0
2.64	12.3618	12.9424	12.6466	15.5244	12.9822	13.0605	13.2595	1.1896	0	0
2.65	11.7573	12.4700	11.9769	15.7155	13.1737	14.3045	14.6274	1.1896	0	0
2.66	11.3478	12.5350	11.8949	14.5681	12.3336	12.5645	12.9804	1.1896	0	0
2.67	10.2075	12.5376	11.2131	13.9880	12.2726	12.0353	13.0137	1.1896	0	0
2.68	11.5739	12.6381	12.0747	15.7508	13.2476	14.3274	14.6418	1.1896	0	0
2.69	11.6123	12.3645	12.8447	16.2495	14.2876	14.1610	15.1890	1.1896	0	0
2.70	10.4260	12.4441	9.9971	12.3042	9.2658	10.6156	9.9842	1.1896	0	0
2.71	12.8953	12.5357	12.8387	14.6965	12.0819	11.9612	11.9519	1.1896	0	0
2.72	10.5130	12.0510	10.3736	11.7167	9.1061	8.6539	8.0846	1.1896	0	0
2.73	8.8358	10.8945	7.9878	10.0436	6.8709	8.7333	7.5349	1.1896	0	0
